FILE spectral_920530-930111.ascii
---------------------------------
400.019989	9.780000	0.920000	0.500000	2.000000
409.820007	9.820000	0.920000	0.500000	3.000000
419.619995	9.850000	0.930000	0.500000	4.000000
429.429993	9.890000	0.940000	0.500000	5.000000
439.250000	9.920000	0.950000	0.500000	6.000000
449.070007	9.940000	0.950000	0.500000	7.000000
458.899994	9.970000	0.960000	0.500000	8.000000
468.730011	9.990000	0.970000	0.500000	9.000000
478.570007	10.010000	0.970000	0.500000	10.000000
488.410004	10.020000	0.980000	0.500000	11.000000
498.260010	10.040000	0.990000	0.500000	12.000000
508.119995	10.050000	1.000000	0.500000	13.000000
517.979980	10.050000	1.000000	0.500000	14.000000
527.849976	10.060000	1.010000	0.500000	15.000000
537.719971	10.060000	1.020000	0.500000	16.000000
547.599976	10.060000	1.030000	0.500000	17.000000
557.489990	10.050000	1.030000	0.500000	18.000000
567.380005	10.040000	1.040000	0.500000	19.000000
577.280029	10.030000	1.050000	0.500000	20.000000
587.179993	10.020000	1.060000	0.500000	21.000000
597.090027	10.000000	1.060000	0.500000	22.000000
607.010010	9.980000	1.070000	0.500000	23.000000
616.929993	9.960000	1.080000	0.500000	24.000000
626.849976	9.940000	1.090000	0.500000	25.000000
636.780029	9.910000	1.090000	0.500000	26.000000
646.719971	9.880000	1.100000	0.500000	27.000000
656.669983	9.840000	1.110000	0.500000	28.000000
666.609985	9.810000	1.120000	0.500000	29.000000
676.570007	9.770000	1.120000	0.500000	30.000000
686.530029	9.730000	1.130000	0.500000	31.000000
696.500000	9.680000	1.140000	0.500000	32.000000
686.909973	8.870000	0.880000	0.500000	34.000000
696.549988	8.870000	0.880000	0.500000	35.000000
706.190002	8.880000	0.890000	0.500000	36.000000
715.830017	8.880000	0.890000	0.500000	37.000000
725.469971	8.880000	0.900000	0.500000	38.000000
735.109985	8.890000	0.900000	0.500000	39.000000
744.739990	8.890000	0.910000	0.500000	40.000000
754.380005	8.890000	0.910000	0.500000	41.000000
764.010010	8.900000	0.920000	0.500000	42.000000
773.640015	8.900000	0.920000	0.500000	43.000000
783.270020	8.900000	0.930000	0.500000	44.000000
792.909973	8.910000	0.930000	0.500000	45.000000
802.530029	8.910000	0.940000	0.500000	46.000000
812.159973	8.910000	0.940000	0.500000	47.000000
821.789978	8.920000	0.950000	0.500000	48.000000
831.409973	8.920000	0.950000	0.500000	49.000000
841.039978	8.920000	0.960000	0.500000	50.000000
850.659973	8.930000	0.960000	0.500000	51.000000
860.280029	8.930000	0.970000	0.500000	52.000000
869.909973	8.930000	0.970000	0.500000	53.000000
879.530029	8.930000	0.980000	0.500000	54.000000
889.140015	8.940000	0.980000	0.500000	55.000000
898.760010	8.940000	0.990000	0.500000	56.000000
908.380005	8.940000	0.990000	0.500000	57.000000
917.989990	8.940000	0.990000	0.500000	58.000000
927.609985	8.950000	1.000000	0.500000	59.000000
937.219971	8.950000	1.000000	0.500000	60.000000
946.830017	8.950000	1.010000	0.500000	61.000000
956.450012	8.950000	1.010000	0.500000	62.000000
966.059998	8.950000	1.020000	0.500000	63.000000
975.659973	8.960000	1.020000	0.500000	64.000000
985.270020	8.960000	1.030000	0.500000	65.000000
994.880005	8.960000	1.030000	0.500000	66.000000
1004.479980	8.960000	1.040000	0.500000	67.000000
1014.090027	8.960000	1.040000	0.500000	68.000000
1023.690002	8.970000	1.050000	0.500000	69.000000
1033.290039	8.970000	1.050000	0.500000	70.000000
1042.890015	8.970000	1.060000	0.500000	71.000000
1052.489990	8.970000	1.060000	0.500000	72.000000
1062.089966	8.970000	1.070000	0.500000	73.000000
1071.689941	8.970000	1.070000	0.500000	74.000000
1081.290039	8.970000	1.080000	0.500000	75.000000
1090.880005	8.980000	1.080000	0.500000	76.000000
1100.479980	8.980000	1.090000	0.500000	77.000000
1110.069946	8.980000	1.090000	0.500000	78.000000
1119.660034	8.980000	1.100000	0.500000	79.000000
1129.250000	8.980000	1.100000	0.500000	80.000000
1138.839966	8.980000	1.100000	0.500000	81.000000
1148.430054	8.980000	1.110000	0.500000	82.000000
1158.020020	8.980000	1.110000	0.500000	83.000000
1167.609985	8.980000	1.120000	0.500000	84.000000
1177.189941	8.980000	1.120000	0.500000	85.000000
1186.770020	8.990000	1.130000	0.500000	86.000000
1196.359985	8.990000	1.130000	0.500000	87.000000
1205.939941	8.990000	1.140000	0.500000	88.000000
1215.520020	8.990000	1.140000	0.500000	89.000000
1225.099976	8.990000	1.150000	0.500000	90.000000
1234.680054	8.990000	1.150000	0.500000	91.000000
1244.260010	8.990000	1.160000	0.500000	92.000000
1253.829956	8.990000	1.160000	0.500000	93.000000
1263.410034	8.990000	1.170000	0.500000	94.000000
1272.979980	8.990000	1.170000	0.500000	95.000000
1282.550049	8.990000	1.180000	0.500000	96.000000
1273.000000	9.180000	1.560000	0.700000	98.000000
1282.959961	9.200000	1.570000	0.700000	99.000000
1292.930054	9.220000	1.570000	0.700000	100.000000
1302.890015	9.240000	1.580000	0.700000	101.000000
1312.849976	9.260000	1.580000	0.700000	102.000000
1322.810059	9.280000	1.590000	0.700000	103.000000
1332.770020	9.300000	1.590000	0.700000	104.000000
1342.729980	9.320000	1.600000	0.700000	105.000000
1352.680054	9.340000	1.600000	0.700000	106.000000
1362.640015	9.360000	1.610000	0.700000	107.000000
1372.589966	9.370000	1.610000	0.700000	108.000000
1382.540039	9.390000	1.620000	0.700000	109.000000
1392.489990	9.410000	1.620000	0.700000	110.000000
1402.439941	9.430000	1.630000	0.700000	111.000000
1412.390015	9.440000	1.630000	0.700000	112.000000
1422.339966	9.460000	1.640000	0.700000	113.000000
1432.280029	9.470000	1.640000	0.700000	114.000000
1442.229980	9.490000	1.650000	0.700000	115.000000
1452.170044	9.510000	1.650000	0.700000	116.000000
1462.109985	9.520000	1.660000	0.700000	117.000000
1472.050049	9.540000	1.660000	0.700000	118.000000
1481.989990	9.550000	1.670000	0.700000	119.000000
1491.920044	9.570000	1.670000	0.700000	120.000000
1501.859985	9.580000	1.680000	0.700000	121.000000
1511.790039	9.590000	1.680000	0.700000	122.000000
1521.729980	9.610000	1.690000	0.700000	123.000000
1531.660034	9.620000	1.690000	0.700000	124.000000
1541.589966	9.630000	1.700000	0.700000	125.000000
1551.520020	9.650000	1.700000	0.700000	126.000000
1561.439941	9.660000	1.710000	0.700000	127.000000
1571.369995	9.670000	1.710000	0.700000	128.000000
1581.300049	9.680000	1.720000	0.700000	129.000000
1591.219971	9.700000	1.720000	0.700000	130.000000
1601.140015	9.710000	1.730000	0.700000	131.000000
1611.060059	9.720000	1.730000	0.700000	132.000000
1620.979980	9.730000	1.740000	0.700000	133.000000
1630.900024	9.740000	1.740000	0.700000	134.000000
1640.810059	9.750000	1.750000	0.700000	135.000000
1650.729980	9.760000	1.750000	0.700000	136.000000
1660.640015	9.770000	1.760000	0.700000	137.000000
1670.560059	9.780000	1.770000	0.700000	138.000000
1680.469971	9.790000	1.770000	0.700000	139.000000
1690.380005	9.800000	1.780000	0.700000	140.000000
1700.280029	9.810000	1.780000	0.700000	141.000000
1710.189941	9.820000	1.790000	0.700000	142.000000
1720.099976	9.820000	1.790000	0.700000	143.000000
1730.000000	9.830000	1.800000	0.700000	144.000000
1739.900024	9.840000	1.800000	0.700000	145.000000
1749.810059	9.850000	1.810000	0.700000	146.000000
1759.709961	9.850000	1.810000	0.700000	147.000000
1769.599976	9.860000	1.820000	0.700000	148.000000
1779.500000	9.870000	1.820000	0.700000	149.000000
1789.400024	9.870000	1.830000	0.700000	150.000000
1799.290039	9.880000	1.830000	0.700000	151.000000
1809.189941	9.890000	1.840000	0.700000	152.000000
1819.079956	9.890000	1.840000	0.700000	153.000000
1828.969971	9.900000	1.850000	0.700000	154.000000
1838.859985	9.900000	1.850000	0.700000	155.000000
1848.750000	9.910000	1.860000	0.700000	156.000000
1858.630005	9.910000	1.860000	0.700000	157.000000
1868.520020	9.910000	1.870000	0.700000	158.000000
1878.400024	9.920000	1.870000	0.700000	159.000000
1888.280029	9.920000	1.880000	0.700000	160.000000
1883.239990	13.720000	2.250000	1.850000	162.000000
1893.250000	13.750000	2.250000	1.850000	163.000000
1903.260010	13.790000	2.260000	1.850000	164.000000
1913.260010	13.820000	2.260000	1.850000	165.000000
1923.270020	13.850000	2.270000	1.850000	166.000000
1933.270020	13.880000	2.280000	1.850000	167.000000
1943.270020	13.910000	2.280000	1.850000	168.000000
1953.260010	13.950000	2.290000	1.850000	169.000000
1963.250000	13.970000	2.290000	1.850000	170.000000
1973.239990	14.000000	2.300000	1.850000	171.000000
1983.229980	14.030000	2.310000	1.850000	172.000000
1993.219971	14.060000	2.310000	1.850000	173.000000
2003.199951	14.090000	2.320000	1.850000	174.000000
2013.180054	14.110000	2.320000	1.850000	175.000000
2023.160034	14.140000	2.330000	1.850000	176.000000
2033.130005	14.160000	2.340000	1.850000	177.000000
2043.099976	14.190000	2.340000	1.850000	178.000000
2053.070068	14.210000	2.350000	1.850000	179.000000
2063.040039	14.230000	2.350000	1.850000	180.000000
2073.000000	14.260000	2.360000	1.850000	181.000000
2082.969971	14.280000	2.370000	1.850000	182.000000
2092.919922	14.300000	2.370000	1.850000	183.000000
2102.879883	14.320000	2.380000	1.850000	184.000000
2112.830078	14.340000	2.380000	1.850000	185.000000
2122.780029	14.360000	2.390000	1.850000	186.000000
2132.729980	14.380000	2.400000	1.850000	187.000000
2142.679932	14.390000	2.400000	1.850000	188.000000
2152.620117	14.410000	2.410000	1.850000	189.000000
2162.560059	14.430000	2.410000	1.850000	190.000000
2172.500000	14.440000	2.420000	1.850000	191.000000
2182.429932	14.460000	2.430000	1.850000	192.000000
2192.370117	14.470000	2.430000	1.850000	193.000000
2202.300049	14.490000	2.440000	1.850000	194.000000
2212.219971	14.500000	2.440000	1.850000	195.000000
2222.149902	14.510000	2.450000	1.850000	196.000000
2232.070068	14.520000	2.460000	1.850000	197.000000
2241.989990	14.530000	2.460000	1.850000	198.000000
2251.899902	14.540000	2.470000	1.850000	199.000000
2261.820068	14.550000	2.470000	1.850000	200.000000
2271.729980	14.560000	2.480000	1.850000	201.000000
2281.639893	14.570000	2.490000	1.850000	202.000000
2291.540039	14.580000	2.490000	1.850000	203.000000
2301.449951	14.580000	2.500000	1.850000	204.000000
2311.350098	14.590000	2.500000	1.850000	205.000000
2321.250000	14.600000	2.510000	1.850000	206.000000
2331.139893	14.600000	2.520000	1.850000	207.000000
2341.030029	14.610000	2.520000	1.850000	208.000000
2350.919922	14.610000	2.530000	1.850000	209.000000
2360.810059	14.610000	2.530000	1.850000	210.000000
2370.699951	14.610000	2.540000	1.850000	211.000000
2380.580078	14.610000	2.550000	1.850000	212.000000
2390.459961	14.620000	2.550000	1.850000	213.000000
2400.330078	14.620000	2.560000	1.850000	214.000000
2410.209961	14.620000	2.560000	1.850000	215.000000
2420.080078	14.610000	2.570000	1.850000	216.000000
2429.949951	14.610000	2.580000	1.850000	217.000000
2439.810059	14.610000	2.580000	1.850000	218.000000
2449.679932	14.610000	2.590000	1.850000	219.000000
2459.540039	14.600000	2.590000	1.850000	220.000000
2469.399902	14.600000	2.600000	1.850000	221.000000
2479.250000	14.590000	2.610000	1.850000	222.000000
2489.110107	14.590000	2.610000	1.850000	223.000000
2498.959961	14.580000	2.620000	1.850000	224.000000
